File: Liquid_crystals/data/SampleX.txt
 q(Å⁻¹) Intensity(abs.units*thickness) sigma(abs.units*thickness)
0.019717 0.00407816 0.000322891
0.021206 0.00307052 0.000281922
0.022694 0.00307581 0.000266028
0.024182 0.0034248 0.000283888
0.025670 0.00248452 0.000235208
0.027158 0.00227472 0.00023006
0.028646 0.00308184 0.000256504
0.030134 0.00269731 0.000236343
0.031622 0.00297895 0.000241244
0.033110 0.00261258 0.000222793
0.034598 0.00237929 0.000211646
0.036087 0.00250706 0.000216274
0.037575 0.00260061 0.000216409
0.039063 0.00228929 0.000199602
0.040551 0.00214588 0.000190082
0.042039 0.00271145 0.000212806
0.043527 0.00292004 0.000217363
0.045015 0.00252187 0.000199675
0.046503 0.00258006 0.0002012
0.047991 0.00273816 0.000202719
0.049480 0.00238237 0.000185756
0.050968 0.00245361 0.000185303
0.052456 0.00252581 0.00018801
0.053944 0.00270581 0.000196599
0.055432 0.00254881 0.000188232
0.056920 0.00245528 0.000179409
0.058408 0.002637758 0.000182524
0.059896 0.0031819 0.000199862
0.061384 0.00282645 0.00019129
0.062873 0.00295109 0.000191899
0.064361 0.00309299 0.000193567
0.065849 0.00277039 0.000180575
0.067337 0.00286013 0.000181934
0.068825 0.00321236 0.000190176
0.070313 0.0032957 0.000193154
0.071801 0.00303202 0.000184764
0.073289 0.00303975 0.000181579
0.074777 0.00307876 0.000183707
0.076266 0.00322622 0.000181456
0.077754 0.00362732 0.000191935
0.079242 0.00377327 0.000196728
0.080730 0.00348536 0.000189545
0.082218 0.0036566 0.000190853
0.083706 0.00371409 0.000190078
0.085194 0.00404839 0.000194826
0.086682 0.00437588 0.000201645
0.088170 0.00402823 0.000197038
0.089658 0.00430222 0.000201304
0.091147 0.00432503 0.000196975
0.092635 0.00465856 0.000203552
0.094123 0.00462744 0.000199893
0.095611 0.00482161 0.000205333
0.097099 0.0050733 0.000211073
0.098587 0.0053268 0.000215374
0.100075 0.00567762 0.000218268
0.101563 0.0056228 0.00021378
0.103051 0.00599367 0.000221155
0.104540 0.00599896 0.000218268
0.106028 0.00633252 0.000226881
0.107516 0.0069512 0.000233181
0.109004 0.00735638 0.000239884
0.110492 0.00721015 0.00023229
0.111980 0.00740702 0.000236298
0.113468 0.00815012 0.000245211
0.114956 0.00865357 0.000256351
0.116444 0.00932134 0.000261319
0.117933 0.00943243 0.000263809
0.119421 0.0100606 0.000265913
0.120909 0.0101911 0.000267637
0.122397 0.0114433 0.000283608
0.123885 0.0116866 0.000289071
0.125373 0.0125829 0.000295408
0.126861 0.0134527 0.000301939
0.128349 0.0136465 0.000316227
0.129837 0.0156563 0.000350034
0.131325 0.0168883 0.000373554
0.132814 0.0181665 0.000392154
0.134302 0.019558 0.000409418
0.135790 0.021429 0.000426802
0.137278 0.0236499 0.000452103
0.138766 0.0252021 0.00046478
0.140254 0.0281252 0.000503649
0.141742 0.030351 0.000520949
0.143230 0.0347476 0.000566021
0.144718 0.053931 0.00069899
0.146207 0.22356 0.00141394
0.147695 1.30156 0.00341173
0.149183 1.02067 0.00310261
0.150671 0.283308 0.00165354
0.152159 0.0623679 0.000768726
0.153647 0.0382684 0.000598088
0.155135 0.0316308 0.000537741
0.156623 0.0291419 0.000525505
0.158111 0.0270206 0.00050953
0.159600 0.0260445 0.000501415
0.161088 0.025301 0.000490805
0.162576 0.0234895 0.000477317
0.164064 0.0220611 0.000453156
0.165552 0.0212702 0.00045423
0.167040 0.0234066 0.000476506
0.168528 0.0419821 0.000647316
0.170016 0.0738569 0.000852472
0.171504 0.05607854 0.000746382
0.172992 0.0413588 0.000621947
0.174481 0.0211606 0.000449977
0.175969 0.0162369 0.000395085
0.177457 0.0145675 0.00038603
0.178945 0.0143521 0.000380374
0.180433 0.0135897 0.000369247
0.181921 0.01347042 0.000359892
0.183409 0.0117199 0.00034459
0.184897 0.011324 0.000336277
0.186385 0.01154 0.000339479
0.187874 0.010479 0.000324284
0.189362 0.0106989 0.000326105
0.190850 0.0103068 0.000325581
0.192338 0.0101516 0.000321541
0.193826 0.00936375 0.000305104
0.195314 0.00982952 0.000314115
0.196802 0.00946528 0.000312815
0.198290 0.00905035 0.000301424
0.199778 0.00854792 0.000297286
0.201267 0.00827554 0.000289651
0.202755 0.00839945 0.000293253
0.204243 0.00830493 0.000289476
0.205731 0.0084355 0.000294625
0.207219 0.00813097 0.000287141
0.208707 0.00708397 0.000270679
0.210195 0.00728579 0.000274515
0.211683 0.00715893 0.000269455
0.213171 0.0070978 0.000269628
0.214660 0.00700588 0.000269213
0.216148 0.00708761 0.00026945
0.217636 0.006997596 0.000269742
0.219124 0.0064715 0.000256228
0.220612 0.00656052 0.000261197
0.222100 0.00751244 0.000278126
0.223588 0.00930214 0.000314198
0.225076 0.0120152 0.000350889
0.226564 0.0118261 0.000348128
0.228052 0.00943634 0.00031175
0.229541 0.00678427 0.000267677
0.231029 0.0068469 0.000264914
0.232517 0.00649585 0.00025868
0.234005 0.0060493 0.000249638
0.235493 0.0061505 0.000259553
0.236981 0.00652549 0.000266656
0.238469 0.00601031 0.000260744
0.239957 0.00608297 0.000266708
0.241445 0.00838006 0.00031663
0.242934 0.0113311 0.000368196
0.244422 0.0126413 0.000400595
0.245910 0.00646949 0.000287466
0.247398 0.00628005 0.000279823
0.248886 0.00576289 0.000268063
0.250374 0.00566572 0.000260401
0.251862 0.00524563 0.000247738
0.253350 0.00550286 0.000251636
0.254838 0.00533872 0.000243855
0.256327 0.00542396 0.000238877
0.257815 0.00551823 0.000240952
0.259303 0.00542144 0.000240054
0.260791 0.00513058 0.000234734
0.262279 0.00526464 0.000233612
0.263767 0.00530571 0.000238724
0.265255 0.00529875 0.000238576
0.266743 0.00513629 0.000232513
0.268231 0.00694597 0.000269044
0.269719 0.00811539 0.000296818
0.271208 0.00967018 0.00031988
0.272696 0.00732208 0.0002805014
0.274184 0.00561507 0.00024439
0.275672 0.00488289 0.000227909
0.277160 0.00536492 0.000238295
0.278648 0.00544309 0.000241262
0.280136 0.00510477 0.000233653
0.281624 0.00746116 0.000283216
0.283112 0.00868783 0.000300255
0.284601 0.00718688 0.000277269
0.286089 0.00572736 0.000246896
0.287577 0.00495971 0.000228026
0.289065 0.00437707 0.000217527
0.290553 0.00465062 0.000222507
0.292041 0.00457016 0.000218913
0.293529 0.00496509 0.000228185
0.295017 0.00502389 0.000231291
0.296505 0.0059674 0.000252087
0.297994 0.00529294 0.000238644
0.299482 0.00439528 0.000216918
0.300970 0.00442787 0.000217174
0.302458 0.00401849 0.000206899
0.303946 0.00432594 0.000210943
0.305434 0.00422727 0.000213314
0.306922 0.00382622 0.000203477
0.308410 0.00418466 0.000209046
0.309898 0.00432517 0.000214693
0.311386 0.0036979 0.000198524
0.312875 0.00329444 0.000188353
0.314363 0.00286709 0.000174821
0.315851 0.00300578 0.000179007
0.317339 0.00284052 0.000174469
0.318827 0.0032104 0.000185966
0.320315 0.00300043 0.000177073
0.321803 0.00293687 0.000177426
0.323291 0.00292791 0.000177163
0.324779 0.00268422 0.000168775
0.326268 0.00284615 0.000175137
0.327756 0.002780675 0.000173119
0.329244 0.00329747 0.000187565
0.330732 0.00287466 0.000175584
0.332220 0.00297685 0.000177776
0.333708 0.002901 0.000177775
0.335196 0.00271745 0.0001720666
0.336684 0.0029074 0.000177525
0.338172 0.00250075 0.000163385
0.339661 0.00290517 0.000177015
0.341149 0.0029824 0.000178444
0.342637 0.00293584 0.000177507
0.344125 0.00285237 0.000205768
0.345613 0.00267453 0.000218744
0.347101 0.0029 0.000240453
0.348589 0.00239168 0.000230799
0.350077 0.00292352 0.00027322
0.351565 0.00330753 0.00031455
0.353053 0.00353889 0.000345737
0.354542 0.00293445 0.000343788
0.356030 0.00285121 0.000349113
0.357518 0.00378921 0.000457039
0.359006 0.00316782 0.000478379
0.360494 0.00336136 0.000553359
0.361982 0.00318092 0.00062616
0.363470 0.00169756 0.000568684
0.364958 0.00361186 0.00137566
0.365702 -9.54464e-06 0.000141437